#wavelength readnoise dark_counts sky_counts target_counts total_counts
2900.0000 520.94 6607 0.061561 0.19021 6607.2
2902.7000 520.94 6607 0.076044 0.17664 6607.2
2905.4000 520.94 6607 0.093463 0.22287 6607.3
2908.1000 520.94 6607 0.11259 0.18988 6607.3
2910.8000 520.94 6607 0.13303 0.21774 6607.3
2913.5000 520.94 6607 0.15322 0.23177 6607.4
2916.2000 520.94 6607 0.16945 0.19488 6607.3
2918.9000 520.94 6607 0.18931 0.16343 6607.3
2921.6000 520.94 6607 0.21386 0.18223 6607.4
2924.3000 520.94 6607 0.23907 0.27097 6607.5
2927.0000 520.94 6607 0.26427 0.44516 6607.7
2929.7000 520.94 6607 0.29495 0.4246 6607.7
2932.4000 520.94 6607 0.33324 0.44338 6607.7
2935.1000 520.94 6607 0.3743 0.51227 6607.9
2937.8000 520.94 6607 0.4192 0.75999 6608.1
2940.5000 520.94 6607 0.47596 0.87016 6608.3
2943.2000 520.94 6607 0.54173 1.0722 6608.6
2945.9000 520.94 6607 0.61264 1.2371 6608.8
2948.6000 520.94 6607 0.69038 1.7641 6609.4
2951.3000 520.94 6607 0.77239 2.7618 6610.5
2954.0000 520.94 6607 0.84251 3.0643 6610.9
2956.7000 520.94 6607 0.89682 4.0714 6611.9
2959.4000 520.94 6607 0.95056 3.9572 6611.9
2962.1000 520.94 6607 1.0202 2.2163 6610.2
2964.8000 520.94 6607 1.1135 3.2607 6611.3
2967.5000 520.94 6607 1.2041 4.709 6612.9
2970.2000 520.94 6607 1.2582 6.9076 6615.1
2972.9000 520.94 6607 1.2772 7.2028 6615.4
2975.6000 520.94 6607 1.2952 5.6514 6613.9
2978.3000 520.94 6607 1.3396 3.8235 6612.1
2981.0000 520.94 6607 1.4023 5.9641 6614.3
2983.7000 520.94 6607 1.4644 6.9324 6615.4
2986.4000 520.94 6607 1.5131 4.8115 6613.3
2989.1000 520.94 6607 1.5185 3.2427 6611.7
2991.8000 520.94 6607 1.4951 5.5506 6614
2994.5000 520.94 6607 1.4765 6.5219 6615
2997.2000 520.94 6607 1.4893 4.7655 6613.2
2999.9000 520.94 6607 1.5428 4.6844 6613.2
3002.6000 520.94 6607 1.5936 3.1368 6611.7
3005.3000 520.94 6607 1.5964 2.3296 6610.9
3008.0000 520.94 6607 1.565 5.0135 6613.5
3010.7000 520.94 6607 1.5522 5.0828 6613.6
3013.4000 520.94 6607 1.5818 2.9672 6611.5
3016.1000 520.94 6607 1.6707 4.6032 6613.2
3018.8000 520.94 6607 1.7833 3.0608 6611.8
3021.5000 520.94 6607 1.8977 3.1559 6612
3024.2000 520.94 6607 2.0045 5.13 6614.1
3026.9000 520.94 6607 2.0731 5.0563 6614.1
3029.6000 520.94 6607 2.1313 5.6523 6614.7
3032.3000 520.94 6607 2.2234 6.4442 6615.6
3035.0000 520.94 6607 2.3526 4.6726 6614
3037.7000 520.94 6607 2.4811 3.9711 6613.4
3040.4000 520.94 6607 2.5934 3.5593 6613.1
3043.1000 520.94 6607 2.6545 5.9769 6615.6
3045.8000 520.94 6607 2.6532 12.344 6622
3048.5000 520.94 6607 2.6355 14.648 6624.2
3051.2000 520.94 6607 2.6438 18.41 6628
3053.9000 520.94 6607 2.6734 17.877 6627.5
3056.6000 520.94 6607 2.7182 18.008 6627.7
3059.3000 520.94 6607 2.7714 18.919 6628.7
3062.0000 520.94 6607 2.8171 21.087 6630.9
3064.7000 520.94 6607 2.8554 21.653 6631.5
3067.4000 520.94 6607 2.876 23.619 6633.5
3070.1000 520.94 6607 2.911 24.193 6634.1
3072.8000 520.94 6607 2.9977 21.535 6631.5
3075.5000 520.94 6607 3.085 20.576 6630.6
3078.2000 520.94 6607 3.1148 18.143 6628.2
3080.9000 520.94 6607 3.1134 17.672 6627.8
3083.6000 520.94 6607 3.0941 17.101 6627.2
3086.3000 520.94 6607 3.0485 19.336 6629.4
3089.0000 520.94 6607 3.0038 18.873 6628.8
3091.7000 520.94 6607 2.9802 24.28 6634.2
3094.4000 520.94 6607 2.9817 21.826 6631.8
3097.1000 520.94 6607 3.0132 18.744 6628.7
3099.8000 520.94 6607 3.0591 24.827 6634.9
3102.5000 520.94 6607 3.121 24.705 6634.8
3105.2000 520.94 6607 3.2169 22.875 6633.1
3107.9000 520.94 6607 3.3376 21.176 6631.5
3110.6000 520.94 6607 3.4559 19.473 6629.9
3113.3000 520.94 6607 3.574 18.551 6629.1
3116.0000 520.94 6607 3.6937 22.197 6632.9
3118.7000 520.94 6607 3.7992 20.903 6631.7
3121.4000 520.94 6607 3.8828 23.593 6634.4
3124.1000 520.94 6607 3.9415 23.368 6634.3
3126.8000 520.94 6607 3.9768 23.617 6634.6
3129.5000 520.94 6607 3.998 22.214 6633.2
3132.2000 520.94 6607 4.0178 21.975 6633
3134.9000 520.94 6607 4.049 20.115 6631.1
3137.6000 520.94 6607 4.0947 15.844 6626.9
3140.3000 520.94 6607 4.1468 13.938 6625.1
3143.0000 520.94 6607 4.1953 10.88 6622
3145.7000 520.94 6607 4.2278 12.46 6623.7
3148.4000 520.94 6607 4.2354 15.015 6626.2
3151.1000 520.94 6607 4.2293 13.366 6624.6
3153.8000 520.94 6607 4.2268 15.354 6626.5
3156.5000 520.94 6607 4.2475 37.533 6648.7
3159.2000 520.94 6607 4.3059 38.935 6650.2
3161.9000 520.94 6607 4.3927 34.042 6645.4
3164.6000 520.94 6607 4.4823 24.69 6636.1
3167.3000 520.94 6607 4.5558 22.524 6634
3170.0000 520.94 6607 4.6085 20.769 6632.3
3172.7000 520.94 6607 4.6577 20.303 6631.9
3175.4000 520.94 6607 4.7283 16.373 6628.1
3178.1000 520.94 6607 4.8226 15.91 6627.7
3180.8000 520.94 6607 4.9255 29.863 6641.8
3183.5000 520.94 6607 5.0149 27.802 6639.8
3186.2000 520.94 6607 5.0733 21.609 6633.6
3188.9000 520.94 6607 5.1017 41.619 6653.7
3191.6000 520.94 6607 5.1197 42.542 6654.6
3194.3000 520.94 6607 5.1483 39.746 6651.9
3197.0000 520.94 6607 5.196 44.6 6656.8
3199.7000 520.94 6607 5.2562 38.292 6650.5
3202.4000 520.94 6607 5.3134 44.63 6656.9
3205.1000 520.94 6607 5.356 51.852 6664.2
3207.8000 520.94 6607 5.3834 49.502 6661.9
3210.5000 520.94 6607 5.4067 36.459 6648.8
3213.2000 520.94 6607 5.4399 26.773 6639.2
3215.9000 520.94 6607 5.4884 27.636 6640.1
3218.6000 520.94 6607 5.5542 29.284 6641.8
3221.3000 520.94 6607 5.6377 29.731 6642.3
3224.0000 520.94 6607 5.7393 22.133 6634.8
3226.7000 520.94 6607 5.8588 14.328 6627.2
3229.4000 520.94 6607 5.994 7.9389 6620.9
3232.1000 520.94 6607 6.1378 5.726 6618.8
3234.8000 520.94 6607 6.2873 8.1268 6621.4
3237.5000 520.94 6607 6.4348 9.1276 6622.5
3240.2000 520.94 6607 6.5719 6.5374 6620.1
3242.9000 520.94 6607 6.6975 12.596 6626.3
3245.6000 520.94 6607 6.8113 22.687 6636.5
3248.3000 520.94 6607 6.9144 32.024 6645.9
3251.0000 520.94 6607 7.0131 34.815 6648.8
3253.7000 520.94 6607 7.1116 46.486 6660.6
3256.4000 520.94 6607 7.2127 54.178 6668.4
3259.1000 520.94 6607 7.3174 58.918 6673.2
3261.8000 520.94 6607 7.4062 61.34 6675.7
3264.5000 520.94 6607 7.4718 65.129 6679.6
3267.2000 520.94 6607 7.5147 66.682 6681.2
3269.9000 520.94 6607 7.544 67.684 6682.2
3272.6000 520.94 6607 7.5773 60.06 6674.6
3275.3000 520.94 6607 7.6169 59.419 6674
3278.0000 520.94 6607 7.6566 54.711 6669.3
3280.7000 520.94 6607 7.6929 61.835 6676.5
3283.4000 520.94 6607 7.7262 56.083 6670.8
3286.1000 520.94 6607 7.763 52.375 6667.1
3288.8000 520.94 6607 7.8223 49.503 6664.3
3291.5000 520.94 6607 7.9009 40.936 6655.8
3294.2000 520.94 6607 7.9941 25.353 6640.3
3296.9000 520.94 6607 8.0921 12.995 6628.1
3299.6000 520.94 6607 8.1788 22.966 6638.1
3302.3000 520.94 6607 8.2547 38.077 6653.3
3305.0000 520.94 6607 8.3204 54.618 6669.9
3307.7000 520.94 6607 8.3748 64.696 6680
3310.4000 520.94 6607 8.4146 67.04 6682.4
3313.1000 520.94 6607 8.4366 63.389 6678.8
3315.8000 520.94 6607 8.4427 62.573 6678
3318.5000 520.94 6607 8.444 71.871 6687.3
3321.2000 520.94 6607 8.448 76.404 6691.8
3323.9000 520.94 6607 8.4566 68.058 6683.5
3326.6000 520.94 6607 8.4684 67.285 6682.7
3329.3000 520.94 6607 8.4825 52.262 6667.7
3332.0000 520.94 6607 8.5059 57.517 6673
3334.7000 520.94 6607 8.5416 93.624 6709.1
3337.4000 520.94 6607 8.5914 95.329 6710.9
3340.1000 520.94 6607 8.6512 82.569 6698.2
3342.8000 520.94 6607 8.7094 81.558 6697.2
3345.5000 520.94 6607 8.7635 79.512 6695.2
3348.2000 520.94 6607 8.811 96.661 6712.4
3350.9000 520.94 6607 8.8522 100.91 6716.7
3353.6000 520.94 6607 8.8879 110.28 6726.1
3356.3000 520.94 6607 8.9156 112.84 6728.7
3359.0000 520.94 6607 8.9264 115.56 6731.4
3361.7000 520.94 6607 8.916 107.3 6723.2
3364.4000 520.94 6607 8.8841 99.38 6715.2
3367.1000 520.94 6607 8.8394 107.22 6723
3369.8000 520.94 6607 8.8032 120.13 6735.9
3372.5000 520.94 6607 8.7959 117.24 6733
3375.2000 520.94 6607 8.8217 125.43 6741.2
3377.9000 520.94 6607 8.8784 119.85 6735.7
3380.6000 520.94 6607 8.9624 97.73 6713.7
3383.3000 520.94 6607 9.0712 90.613 6706.6
3386.0000 520.94 6607 9.2051 94.025 6710.2
3388.7000 520.94 6607 9.3644 116.91 6733.2
3391.4000 520.94 6607 9.5416 114.13 6730.6
3394.1000 520.94 6607 9.7318 100.28 6717
3396.8000 520.94 6607 9.9251 94.648 6711.5
3399.5000 520.94 6607 10.1 110.68 6727.7
3402.2000 520.94 6607 10.24 109.73 6726.9
3404.9000 520.94 6607 10.349 104.37 6721.7
3407.6000 520.94 6607 10.43 79.812 6697.2
3410.3000 520.94 6607 10.495 106.82 6724.3
3413.0000 520.94 6607 10.554 115.2 6732.7
3415.7000 520.94 6607 10.61 103.07 6720.6
3418.4000 520.94 6607 10.669 109.58 6727.2
3421.1000 520.94 6607 10.715 127.98 6745.7
3423.8000 520.94 6607 10.739 134.06 6751.8
3426.5000 520.94 6607 10.741 108.59 6726.3
3429.2000 520.94 6607 10.732 78.724 6696.4
3431.9000 520.94 6607 10.721 86.296 6704
3434.6000 520.94 6607 10.712 95.224 6712.9
3437.3000 520.94 6607 10.698 109.49 6727.2
3440.0000 520.94 6607 10.676 126.92 6744.6
3442.7000 520.94 6607 10.655 130.48 6748.1
3445.4000 520.94 6607 10.64 107.4 6725
3448.1000 520.94 6607 10.65 84.825 6702.4
3450.8000 520.94 6607 10.682 75.475 6693.1
3453.5000 520.94 6607 10.728 105.05 6722.7
3456.2000 520.94 6607 10.783 139 6756.7
3458.9000 520.94 6607 10.838 140.72 6758.5
3461.6000 520.94 6607 10.894 108.28 6726.1
3464.3000 520.94 6607 10.95 133.47 6751.4
3467.0000 520.94 6607 11 108.73 6726.7
3469.7000 520.94 6607 11.033 80.036 6698
3472.4000 520.94 6607 11.049 107.48 6725.5
3475.1000 520.94 6607 11.052 127.78 6745.8
3477.8000 520.94 6607 11.055 102.72 6720.7
3480.5000 520.94 6607 11.075 136.3 6754.3
3483.2000 520.94 6607 11.122 138.19 6756.3
3485.9000 520.94 6607 11.196 126.36 6744.5
3488.6000 520.94 6607 11.293 104.26 6722.5
3491.3000 520.94 6607 11.414 75.062 6693.4
3494.0000 520.94 6607 11.556 112.93 6731.5
3496.7000 520.94 6607 11.699 115.82 6734.5
3499.4000 520.94 6607 11.826 137.38 6756.2
3502.1000 520.94 6607 11.936 144.41 6763.3
3504.8000 520.94 6607 12.026 135.69 6754.7
3507.5000 520.94 6607 12.089 155.24 6774.3
3510.2000 520.94 6607 12.115 132.84 6751.9
3512.9000 520.94 6607 12.105 121.7 6740.8
3515.6000 520.94 6607 12.072 120.72 6739.8
3518.3000 520.94 6607 12.046 135.23 6754.2
3521.0000 520.94 6607 12.034 136.74 6755.7
3523.7000 520.94 6607 12.056 123.12 6742.1
3526.4000 520.94 6607 12.12 152.77 6771.9
3529.1000 520.94 6607 12.223 163.95 6783.1
3531.8000 520.94 6607 12.364 137.64 6757
3534.5000 520.94 6607 12.539 105.38 6724.9
3537.2000 520.94 6607 12.729 122.5 6742.2
3539.9000 520.94 6607 12.921 153.1 6773
3542.6000 520.94 6607 13.1 127.14 6747.2
3545.3000 520.94 6607 13.233 109.72 6729.9
3548.0000 520.94 6607 13.301 150.15 6770.4
3550.7000 520.94 6607 13.301 154.01 6774.3
3553.4000 520.94 6607 13.238 147.74 6767.9
3556.1000 520.94 6607 13.12 151.72 6771.8
3558.8000 520.94 6607 12.951 156.52 6776.4
3561.5000 520.94 6607 12.735 149.39 6769.1
3564.2000 520.94 6607 12.493 146.87 6766.3
3566.9000 520.94 6607 12.238 175.63 6794.8
3569.6000 520.94 6607 11.973 142.47 6761.4
3572.3000 520.94 6607 11.702 129.17 6747.8
3575.0000 520.94 6607 11.456 114.84 6733.3
3577.7000 520.94 6607 11.301 128.34 6746.6
3580.4000 520.94 6607 11.262 122.39 6740.6
3583.1000 520.94 6607 11.337 95.283 6713.6
3585.8000 520.94 6607 11.497 110.91 6729.4
3588.5000 520.94 6607 11.693 155.44 6774.1
3591.2000 520.94 6607 11.912 161.96 6780.8
3593.9000 520.94 6607 12.153 177.37 6796.5
3596.6000 520.94 6607 12.405 175.89 6795.3
3599.3000 520.94 6607 12.661 173.65 6793.3
3602.0000 520.94 6607 12.9 162.51 6782.4
3604.7000 520.94 6607 13.067 142.62 6762.7
3607.4000 520.94 6607 13.171 147.25 6767.4
3610.1000 520.94 6607 13.228 152.36 6772.6
3612.8000 520.94 6607 13.264 158.37 6778.6
3615.5000 520.94 6607 13.321 159.15 6779.4
3618.2000 520.94 6607 13.389 148.65 6769
3620.9000 520.94 6607 13.467 150.85 6771.3
3623.6000 520.94 6607 13.561 150.08 6770.6
3626.3000 520.94 6607 13.682 165.88 6786.5
3629.0000 520.94 6607 13.833 177.83 6798.6
3631.7000 520.94 6607 14.007 167.75 6788.7
3634.4000 520.94 6607 14.174 106.84 6728
3637.1000 520.94 6607 14.339 121.81 6743.1
3639.8000 520.94 6607 14.512 171.8 6793.3
3642.5000 520.94 6607 14.701 183.48 6805.1
3645.2000 520.94 6607 14.924 186.14 6808
3647.9000 520.94 6607 15.176 164.76 6786.9
3650.6000 520.94 6607 15.454 113.24 6735.7
3653.3000 520.94 6607 15.753 120.42 6743.1
3656.0000 520.94 6607 16.059 139.18 6762.2
3658.7000 520.94 6607 16.351 155.12 6778.4
3661.4000 520.94 6607 16.622 163.24 6786.8
3664.1000 520.94 6607 16.85 175.05 6798.9
3666.8000 520.94 6607 17.02 209.21 6833.2
3669.5000 520.94 6607 17.128 190.2 6814.3
3672.2000 520.94 6607 17.177 198.05 6822.2
3674.9000 520.94 6607 17.185 133.91 6758.1
3677.6000 520.94 6607 17.194 109.71 6733.9
3680.3000 520.94 6607 17.219 129.21 6753.4
3683.0000 520.94 6607 17.273 157.93 6782.2
3685.7000 520.94 6607 17.359 194.32 6818.6
3688.4000 520.94 6607 17.444 172.15 6796.6
3691.1000 520.94 6607 17.52 129.55 6754
3693.8000 520.94 6607 17.592 153.99 6778.5
3696.5000 520.94 6607 17.68 192.74 6817.4
3699.2000 520.94 6607 17.8 185.39 6810.2
3701.9000 520.94 6607 17.946 191.34 6816.3
3704.6000 520.94 6607 18.075 223.56 6848.6
3707.3000 520.94 6607 18.146 219.39 6844.5
3710.0000 520.94 6607 18.143 173.68 6798.8
3712.7000 520.94 6607 18.083 150.4 6775.4
3715.4000 520.94 6607 18.001 144.82 6769.8
3718.1000 520.94 6607 17.902 184.67 6809.5
3720.8000 520.94 6607 17.785 202.55 6827.3
3723.5000 520.94 6607 17.634 201.42 6826
3726.2000 520.94 6607 17.447 201.29 6825.7
3728.9000 520.94 6607 17.239 170.07 6794.3
3731.6000 520.94 6607 17.019 150.12 6774.1
3734.3000 520.94 6607 16.821 172.33 6796.1
3737.0000 520.94 6607 16.691 182.9 6806.6
3739.7000 520.94 6607 16.652 157.11 6780.7
3742.4000 520.94 6607 16.709 177.81 6801.5
3745.1000 520.94 6607 16.856 190.89 6814.7
3747.8000 520.94 6607 17.069 208.91 6832.9
3750.5000 520.94 6607 17.336 237.39 6861.7
3753.2000 520.94 6607 17.644 232.36 6857
3755.9000 520.94 6607 17.995 207.42 6832.4
3758.6000 520.94 6607 18.417 230.85 6856.2
3761.3000 520.94 6607 18.914 227.07 6852.9
3764.0000 520.94 6607 19.45 268.68 6895.1
3766.7000 520.94 6607 19.978 285.23 6912.2
3769.4000 520.94 6607 20.475 296.01 6923.5
3772.1000 520.94 6607 20.942 294.19 6922.1
3774.8000 520.94 6607 21.394 270.89 6899.2
3777.5000 520.94 6607 21.774 291.19 6919.9
3780.2000 520.94 6607 22.051 272.46 6901.5
3782.9000 520.94 6607 22.207 267.63 6896.8
3785.6000 520.94 6607 22.243 270.1 6899.3
3788.3000 520.94 6607 22.24 258.63 6887.8
3791.0000 520.94 6607 22.221 251.31 6880.5
3793.7000 520.94 6607 22.211 257.37 6886.5
3796.4000 520.94 6607 22.191 266.54 6895.7
3799.1000 520.94 6607 22.118 245.23 6874.3
3801.8000 520.94 6607 22 290.45 6919.4
3804.5000 520.94 6607 21.894 318.47 6947.3
3807.2000 520.94 6607 21.792 337.49 6966.3
3809.9000 520.94 6607 21.674 315.58 6944.2
3812.6000 520.94 6607 21.5 331.5 6960
3815.3000 520.94 6607 21.198 336.1 6964.3
3818.0000 520.94 6607 20.789 283.26 6911
3820.7000 520.94 6607 20.287 267.35 6894.6
3823.4000 520.94 6607 19.74 252.83 6879.5
3826.1000 520.94 6607 19.246 281.27 6907.5
3828.8000 520.94 6607 18.898 275.09 6901
3831.5000 520.94 6607 18.717 251.67 6877.4
3834.2000 520.94 6607 18.734 285.45 6911.1
3836.9000 520.94 6607 18.925 306.7 6932.6
3839.6000 520.94 6607 19.257 284.24 6910.5
3842.3000 520.94 6607 19.712 279.58 6906.3
3845.0000 520.94 6607 20.244 316.12 6943.3
3847.7000 520.94 6607 20.827 290.86 6918.7
3850.4000 520.94 6607 21.449 306.19 6934.6
3853.1000 520.94 6607 22.055 310.19 6939.2
3855.8000 520.94 6607 22.564 272.1 6901.6
3858.5000 520.94 6607 22.959 284.78 6914.7
3861.2000 520.94 6607 23.247 306.6 6936.8
3863.9000 520.94 6607 23.473 305.78 6936.2
3866.6000 520.94 6607 23.669 320.52 6951.2
3869.3000 520.94 6607 23.835 293.48 6924.3
3872.0000 520.94 6607 23.975 248.99 6879.9
3874.7000 520.94 6607 24.116 326.18 6957.3
3877.4000 520.94 6607 24.315 348.12 6979.4
3880.1000 520.94 6607 24.599 323.54 6955.1
3882.8000 520.94 6607 24.971 196.15 6828.1
3885.5000 520.94 6607 25.42 156.13 6788.5
3888.2000 520.94 6607 25.916 275.14 6908
3890.9000 520.94 6607 26.454 281.07 6914.5
3893.6000 520.94 6607 27.042 225.78 6859.8
3896.3000 520.94 6607 27.686 195.72 6830.4
3899.0000 520.94 6607 28.393 219.77 6855.1
3901.7000 520.94 6607 29.151 310.44 6946.6
3904.4000 520.94 6607 29.887 343.79 6980.6
3907.1000 520.94 6607 30.466 268.07 6905.5
3909.8000 520.94 6607 30.823 297.72 6935.5
3912.5000 520.94 6607 30.957 300.52 6938.4
3915.2000 520.94 6607 30.889 310.03 6947.9
3917.9000 520.94 6607 30.585 317.53 6955.1
3920.6000 520.94 6607 30.03 290.75 6927.7
3923.3000 520.94 6607 29.235 284.69 6920.9
3926.0000 520.94 6607 28.331 373.38 7008.7
3928.7000 520.94 6607 27.556 421 7055.5
3931.4000 520.94 6607 26.972 410.54 7044.5
3934.1000 520.94 6607 26.685 346.66 6980.3
3936.8000 520.94 6607 26.721 337.29 6971
3939.5000 520.94 6607 27.063 341.91 6975.9
3942.2000 520.94 6607 27.717 350.64 6985.3
3944.9000 520.94 6607 28.661 323.67 6959.3
3947.6000 520.94 6607 29.685 291.5 6928.2
3950.3000 520.94 6607 30.683 348.4 6986
3953.0000 520.94 6607 31.514 410.83 7049.3
3955.7000 520.94 6607 32.014 386.26 7025.2
3958.4000 520.94 6607 32.295 358.12 6997.4
3961.1000 520.94 6607 32.395 378.64 7018
3963.8000 520.94 6607 32.371 417.68 7057
3966.5000 520.94 6607 32.368 425.8 7065.1
3969.2000 520.94 6607 32.519 371.83 7011.3
3971.9000 520.94 6607 32.897 396.35 7036.2
3974.6000 520.94 6607 33.702 363.92 7004.6
3977.3000 520.94 6607 34.888 275.54 6917.4
3980.0000 520.94 6607 36.39 263.79 6907.1
3982.7000 520.94 6607 38.128 323.17 6968.3
3985.4000 520.94 6607 39.929 408.56 7055.5
3988.1000 520.94 6607 41.72 459.88 7108.6
3990.8000 520.94 6607 43.466 391.43 7041.9
3993.5000 520.94 6607 45.047 447.97 7100
3996.2000 520.94 6607 46.359 451.27 7104.6
3998.9000 520.94 6607 47.394 382.79 7037.1
4001.6000 520.94 6607 48.178 364.64 7019.8
4004.3000 520.94 6607 48.84 402.61 7058.4
4007.0000 520.94 6607 49.424 385.41 7041.8
4009.7000 520.94 6607 49.933 439.2 7096.1
4012.4000 520.94 6607 50.378 444.53 7101.9
4015.1000 520.94 6607 50.773 380.84 7038.6
4017.8000 520.94 6607 51.101 294.16 6952.2
4020.5000 520.94 6607 51.354 366.17 7024.5
4023.2000 520.94 6607 51.515 441.32 7099.8
4025.9000 520.94 6607 51.596 434.65 7093.2
4028.6000 520.94 6607 51.609 447.89 7106.5
4031.3000 520.94 6607 51.563 525.89 7184.4
4034.0000 520.94 6607 51.483 410.39 7068.8
4036.7000 520.94 6607 51.379 385.41 7043.8
4039.4000 520.94 6607 51.255 406.7 7064.9
4042.1000 520.94 6607 51.133 365.21 7023.3
4044.8000 520.94 6607 51.034 461.7 7119.7
4047.5000 520.94 6607 50.932 521.71 7179.6
4050.2000 520.94 6607 50.819 556.88 7214.7
4052.9000 520.94 6607 50.677 486.57 7144.2
4055.6000 520.94 6607 50.529 482.71 7140.2
4058.3000 520.94 6607 50.41 450.42 7107.8
4061.0000 520.94 6607 50.322 401.8 7059.1
4063.7000 520.94 6607 50.272 410.49 7067.7
4066.4000 520.94 6607 50.292 512.22 7169.5
4069.1000 520.94 6607 50.401 459.63 7117
4071.8000 520.94 6607 50.616 393.29 7050.9
4074.5000 520.94 6607 50.944 327.1 6985
4077.2000 520.94 6607 51.335 379.44 7037.7
4079.9000 520.94 6607 51.768 485.45 7144.2
4082.6000 520.94 6607 52.197 501.19 7160.4
4085.3000 520.94 6607 52.51 505.55 7165
4088.0000 520.94 6607 52.604 503.48 7163.1
4090.7000 520.94 6607 52.457 534.03 7193.4
4093.4000 520.94 6607 52.077 526.62 7185.7
4096.1000 520.94 6607 51.681 559.04 7217.7
4098.8000 520.94 6607 51.41 531.44 7189.8
4101.5000 520.94 6607 51.302 483.46 7141.7
4104.2000 520.94 6607 51.371 531.13 7189.5
4106.9000 520.94 6607 51.493 472.51 7131
4109.6000 520.94 6607 51.636 455.73 7114.3
4112.3000 520.94 6607 51.872 490.32 7149.2
4115.0000 520.94 6607 52.289 453.97 7113.2
4117.7000 520.94 6607 52.888 475.65 7135.5
4120.4000 520.94 6607 53.625 403.5 7064.1
4123.1000 520.94 6607 54.264 317.01 6978.2
4125.8000 520.94 6607 54.671 314.87 6976.5
4128.5000 520.94 6607 54.836 329.85 6991.6
4131.2000 520.94 6607 54.803 379.65 7041.4
4133.9000 520.94 6607 54.712 401.04 7062.7
4136.6000 520.94 6607 54.613 376.5 7038.1
4139.3000 520.94 6607 54.515 304.11 6965.6
4142.0000 520.94 6607 54.429 346.98 7008.4
4144.7000 520.94 6607 54.391 283.28 6944.6
4147.4000 520.94 6607 54.456 308.84 6970.3
4150.1000 520.94 6607 54.633 413.86 7075.5
4152.8000 520.94 6607 54.905 463.56 7125.4
4155.5000 520.94 6607 55.174 468.31 7130.5
4158.2000 520.94 6607 55.341 543.74 7206
4160.9000 520.94 6607 55.389 587.47 7249.8
4163.6000 520.94 6607 55.328 503.26 7165.6
4166.3000 520.94 6607 55.231 420.25 7082.4
4169.0000 520.94 6607 55.135 418.63 7080.7
4171.7000 520.94 6607 55.022 359.96 7021.9
4174.4000 520.94 6607 54.843 413.2 7075
4177.1000 520.94 6607 54.592 473.67 7135.2
4179.8000 520.94 6607 54.283 544.92 7206.2
4182.5000 520.94 6607 54.012 383.87 7044.8
4185.2000 520.94 6607 53.89 391.93 7052.8
4187.9000 520.94 6607 53.946 504.19 7165.1
4190.6000 520.94 6607 54.167 563.99 7225.1
4193.3000 520.94 6607 54.474 618.01 7279.4
4196.0000 520.94 6607 54.823 462.79 7124.6
4198.7000 520.94 6607 55.204 363.76 7025.9
4201.4000 520.94 6607 55.612 443.89 7106.5
4204.1000 520.94 6607 56.005 450.69 7113.7
4206.8000 520.94 6607 56.257 567.5 7230.7
4209.5000 520.94 6607 56.323 551.82 7215.1
4212.2000 520.94 6607 56.197 467.29 7130.5
4214.9000 520.94 6607 55.942 427.69 7090.6
4217.6000 520.94 6607 55.704 385.15 7047.8
4220.3000 520.94 6607 55.512 427.84 7090.3
4223.0000 520.94 6607 55.369 486.64 7149
4225.7000 520.94 6607 55.263 498.49 7160.7
4228.4000 520.94 6607 55.18 528.33 7190.5
4231.1000 520.94 6607 55.156 529.17 7191.3
4233.8000 520.94 6607 55.297 497.83 7160.1
4236.5000 520.94 6607 55.583 495.27 7157.8
4239.2000 520.94 6607 55.98 495.94 7158.9
4241.9000 520.94 6607 56.405 460.83 7124.2
4244.6000 520.94 6607 56.726 514.32 7178
4247.3000 520.94 6607 56.946 517.82 7181.7
4250.0000 520.94 6607 57.073 491.86 7155.9
4252.7000 520.94 6607 57.12 443.6 7107.7
4255.4000 520.94 6607 57.06 458.79 7122.8
4258.1000 520.94 6607 56.844 489.32 7153.1
4260.8000 520.94 6607 56.481 438.38 7101.8
4263.5000 520.94 6607 56.047 433.08 7096.1
4266.2000 520.94 6607 55.636 529.47 7192.1
4268.9000 520.94 6607 55.282 532.49 7194.7
4271.6000 520.94 6607 54.974 510.43 7172.4
4274.3000 520.94 6607 54.661 531.74 7193.4
4277.0000 520.94 6607 54.274 593.99 7255.2
4279.7000 520.94 6607 53.802 540.08 7200.9
4282.4000 520.94 6607 53.276 422.36 7082.6
4285.1000 520.94 6607 52.677 420.2 7079.8
4287.8000 520.94 6607 51.903 445.4 7104.3
4290.5000 520.94 6607 50.926 508.99 7166.9
4293.2000 520.94 6607 49.741 597.3 7254
4295.9000 520.94 6607 48.698 587.82 7243.5
4298.6000 520.94 6607 48.065 488.02 7143.1
4301.3000 0 6607 47.895 344.98 6999.8
4304.0000 0 6607 48.176 431.37 7086.5
4306.7000 0 6607 48.657 549.94 7205.6
4309.4000 0 6607 49.252 509.76 7166
4312.1000 0 6607 50.023 532.32 7189.3
4314.8000 0 6607 51.098 415.04 7073.1
4317.5000 0 6607 52.535 303.89 6963.4
4320.2000 0 6607 54.283 379.63 7040.9
4322.9000 0 6607 55.949 534.78 7197.7
4325.6000 0 6607 57.21 543.29 7207.5
4328.3000 0 6607 57.983 454.2 7119.1
4331.0000 0 6607 58.332 396.63 7061.9
4333.7000 0 6607 58.538 319.29 6984.8
4336.4000 0 6607 58.75 426.68 7092.4
4339.1000 0 6607 58.999 574.7 7240.7
4341.8000 0 6607 59.27 617.2 7283.4
4344.5000 0 6607 59.558 463.13 7129.7
4347.2000 0 6607 59.94 509 7175.9
4349.9000 0 6607 60.443 536.52 7203.9
4352.6000 0 6607 61.109 541.34 7209.4
4355.3000 0 6607 61.881 496.89 7165.7
4358.0000 0 6607 62.627 489.76 7159.4
4360.7000 0 6607 63.314 561.66 7231.9
4363.4000 0 6607 63.876 605.63 7276.5
4366.1000 0 6607 64.223 621.81 7293
4368.8000 0 6607 64.305 669.15 7340.4
4371.5000 0 6607 64.092 702.79 7373.8
4374.2000 0 6607 63.58 709.03 7379.6
4376.9000 0 6607 63.009 602.53 7272.5
4379.6000 0 6607 62.476 548.18 7217.6
4382.3000 0 6607 62.082 568.58 7237.6
4385.0000 0 6607 61.869 538.61 7207.4
4387.7000 0 6607 61.698 474.92 7143.6
4390.4000 0 6607 61.551 405.85 7074.4
4393.1000 0 6607 61.518 510.34 7178.8
4395.8000 0 6607 61.773 637.19 7305.9
4398.5000 0 6607 62.423 668.32 7337.7
4401.2000 0 6607 63.396 624.45 7294.8
4403.9000 0 6607 64.415 701.57 7373
4406.6000 0 6607 65.317 671.15 7343.4
4409.3000 0 6607 66.078 554.15 7227.2
4412.0000 0 6607 66.788 569.02 7242.8
4414.7000 0 6607 67.577 568.98 7243.5
4417.4000 0 6607 68.405 520.48 7195.9
4420.1000 0 6607 69.236 537.9 7214.1
4422.8000 0 6607 69.942 451.6 7128.5
4425.5000 0 6607 70.465 459.81 7137.2
4428.2000 0 6607 70.846 461.18 7139
4430.9000 0 6607 71.109 366.9 7045
4433.6000 0 6607 71.31 364.53 7042.8
4436.3000 0 6607 71.372 395.9 7074.2
4439.0000 0 6607 71.247 423.31 7101.5
4441.7000 0 6607 70.964 556.67 7234.6
4444.4000 0 6607 70.636 620.29 7297.9
4447.1000 0 6607 70.388 648.54 7325.9
4449.8000 0 6607 70.247 625.44 7302.7
4452.5000 0 6607 70.171 654.71 7331.8
4455.2000 0 6607 70.152 652.01 7329.1
4457.9000 0 6607 70.247 603.6 7280.8
4460.6000 0 6607 70.487 549.21 7226.7
4463.3000 0 6607 70.958 582.53 7260.5
4466.0000 0 6607 71.574 691.53 7370.1
4468.7000 0 6607 72.249 669.18 7348.4
4471.4000 0 6607 72.931 670.16 7350.1
4474.1000 0 6607 73.529 614.36 7294.9
4476.8000 0 6607 74.09 557.09 7238.1
4479.5000 0 6607 74.63 665.13 7346.7
4482.2000 0 6607 75.109 602.51 7284.6
4484.9000 0 6607 75.486 595.72 7278.2
4487.6000 0 6607 75.79 586.64 7269.4
4490.3000 0 6607 76.053 590.27 7273.3
4493.0000 0 6607 76.404 477.16 7160.5
4495.7000 0 6607 76.866 461.21 7145
4498.4000 0 6607 77.395 599.78 7284.1
4501.1000 0 6607 77.959 651.17 7336.1
4503.8000 0 6607 78.462 658.09 7343.5
4506.5000 0 6607 78.8 680.26 7366
4509.2000 0 6607 78.933 701.93 7387.8
4511.9000 0 6607 78.841 695.96 7381.8
4514.6000 0 6607 78.528 646.87 7332.4
4517.3000 0 6607 78.09 719.41 7404.5
4520.0000 0 6607 77.56 788.23 7472.8
4522.7000 0 6607 77.004 803.87 7487.8
4525.4000 0 6607 76.475 771.86 7455.3
4528.1000 0 6607 75.982 739.11 7422.1
4530.8000 0 6607 75.542 684.08 7366.6
4533.5000 0 6607 75.239 650.48 7332.7
4536.2000 0 6607 75.132 680.42 7362.5
4538.9000 0 6607 75.233 596.33 7278.5
4541.6000 0 6607 75.498 437.13 7119.6
4544.3000 0 6607 75.823 282.42 6965.2
4547.0000 0 6607 76.179 177.16 6860.3
4549.7000 0 6607 76.563 257.93 6941.5
4552.4000 0 6607 76.976 444.39 7128.3
4555.1000 0 6607 77.414 584.14 7268.5
4557.8000 0 6607 77.867 600.67 7285.5
4560.5000 0 6607 78.327 653.79 7339.1
4563.2000 0 6607 78.76 724 7409.7
4565.9000 0 6607 79.076 750.92 7437
4568.6000 0 6607 79.222 761.48 7447.7
4571.3000 0 6607 79.193 787.9 7474.1
4574.0000 0 6607 79.02 733.6 7419.6
4576.7000 0 6607 78.79 752.81 7438.6
4579.4000 0 6607 78.539 598.61 7284.1
4582.1000 0 6607 78.276 496.25 7181.5
4584.8000 0 6607 78.013 338.59 7023.6
4587.5000 0 6607 77.755 194.97 6879.7
4590.2000 0 6607 77.514 295.15 6979.6
4592.9000 0 6607 77.367 470.29 7154.6
4595.6000 0 6607 77.357 620.7 7305
4598.3000 0 6607 77.485 734.84 7419.3
4601.0000 0 6607 77.725 831.04 7515.7
4603.7000 0 6607 77.992 803.95 7488.9
4606.4000 0 6607 78.273 831.46 7516.7
4609.1000 0 6607 78.572 865.54 7551.1
4611.8000 0 6607 78.888 887.45 7573.3
4614.5000 0 6607 79.191 916.48 7602.6
4617.2000 0 6607 79.418 917.83 7604.2
4619.9000 0 6607 79.556 852.46 7539
4622.6000 0 6607 79.61 885.34 7571.9
4625.3000 0 6607 79.584 964.37 7650.9
4628.0000 0 6607 79.474 953.65 7640.1
4630.7000 0 6607 79.276 822.59 7508.8
4633.4000 0 6607 78.985 929.42 7615.4
4636.1000 0 6607 78.659 963.83 7649.5
4638.8000 0 6607 78.342 963.82 7649.1
4641.5000 0 6607 78.059 984.24 7669.3
4644.2000 0 6607 77.841 969.31 7654.1
4646.9000 0 6607 77.603 1006.7 7691.3
4649.6000 0 6607 77.314 981.76 7666
4652.3000 0 6607 76.982 956.8 7640.7
4655.0000 0 6607 76.673 1025.6 7709.3
4657.7000 0 6607 76.493 992.26 7675.7
4660.4000 0 6607 76.448 842.63 7526
4663.1000 0 6607 76.463 853.67 7537.1
4665.8000 0 6607 76.452 978.27 7661.7
4668.5000 0 6607 76.376 1060.1 7743.5
4671.2000 0 6607 76.262 999.83 7683.1
4673.9000 0 6607 76.214 966.42 7649.6
4676.6000 0 6607 76.268 771.45 7454.7
4679.3000 0 6607 76.42 938.55 7621.9
4682.0000 0 6607 76.607 1026.8 7710.3
4684.7000 0 6607 76.695 993.48 7677.1
4687.4000 0 6607 76.607 935.98 7619.6
4690.1000 0 6607 76.336 908.1 7591.4
4692.8000 0 6607 75.942 951.49 7634.4
4695.5000 0 6607 75.563 938.46 7621
4698.2000 0 6607 75.31 828.22 7510.5
4700.9000 0 6607 75.197 916.16 7598.3
4703.6000 0 6607 75.207 991.66 7673.8
4706.3000 0 6607 75.285 914.28 7596.5
4709.0000 0 6607 75.408 957.98 7640.4
4711.7000 0 6607 75.598 890.22 7572.8
4714.4000 0 6607 75.897 823.29 7506.2
4717.1000 0 6607 76.272 991.85 7675.1
4719.8000 0 6607 76.697 989.2 7672.9
4722.5000 0 6607 77.075 949.46 7633.5
4725.2000 0 6607 77.337 1049.1 7733.4
4727.9000 0 6607 77.518 1067.2 7751.7
4730.6000 0 6607 77.638 1010.6 7695.2
4733.3000 0 6607 77.743 979.98 7664.7
4736.0000 0 6607 77.817 881.32 7566.1
4738.7000 0 6607 77.835 814.54 7499.3
4741.4000 0 6607 77.812 657.49 7342.3
4744.1000 0 6607 77.787 794.38 7479.1
4746.8000 0 6607 77.755 934.68 7619.4
4749.5000 0 6607 77.706 949.22 7633.9
4752.2000 0 6607 77.609 930.36 7614.9
4754.9000 0 6607 77.465 987.7 7672.1
4757.6000 0 6607 77.36 1036.5 7720.9
4760.3000 0 6607 77.319 991.06 7675.3
4763.0000 0 6607 77.376 966.74 7651.1
4765.7000 0 6607 77.481 980.19 7664.6
4768.4000 0 6607 77.57 1019.9 7704.4
4771.1000 0 6607 77.642 980.23 7664.8
4773.8000 0 6607 77.73 964.91 7649.6
4776.5000 0 6607 77.907 898.47 7583.3
4779.2000 0 6607 78.197 916.3 7601.5
4781.9000 0 6607 78.548 1026.2 7711.7
4784.6000 0 6607 78.842 1064.8 7750.6
4787.3000 0 6607 79.007 1015 7701
4790.0000 0 6607 79.039 858 7544
4792.7000 0 6607 79.022 982.41 7668.4
4795.4000 0 6607 79.055 1008.1 7694.1
4798.1000 0 6607 79.189 976.73 7662.9
4800.8000 0 6607 79.413 966.6 7653
4803.5000 0 6607 79.647 938.06 7624.7
4806.2000 0 6607 79.802 977.51 7664.3
4808.9000 0 6607 79.843 1032.1 7718.9
4811.6000 0 6607 79.79 1059.6 7746.4
4814.3000 0 6607 79.711 1057.3 7744
4817.0000 0 6607 79.647 1002.2 7688.8
4819.7000 0 6607 79.606 1022.1 7708.6
4822.4000 0 6607 79.551 925.25 7611.8
4825.1000 0 6607 79.427 882.5 7568.9
4827.8000 0 6607 79.21 946.65 7632.8
4830.5000 0 6607 78.905 957.56 7643.4
4833.2000 0 6607 78.569 989.05 7674.6
4835.9000 0 6607 78.187 980.14 7665.3
4838.6000 0 6607 77.731 1014.8 7699.5
4841.3000 0 6607 77.185 952.28 7636.4
4844.0000 0 6607 76.505 1011.9 7695.4
4846.7000 0 6607 75.64 1056.7 7739.3
4849.4000 0 6607 74.575 1025.7 7707.3
4852.1000 0 6607 73.334 924.05 7604.3
4854.8000 0 6607 72.053 922.67 7601.7
4857.5000 0 6607 70.961 930.97 7608.9
4860.2000 0 6607 70.112 980.78 7657.9
4862.9000 0 6607 69.548 1044.4 7720.9
4865.6000 0 6607 69.263 1063.3 7739.5
4868.3000 0 6607 69.222 1067 7743.2
4871.0000 0 6607 69.432 1049.3 7725.7
4873.7000 0 6607 69.931 955.82 7632.7
4876.4000 0 6607 70.708 1081.5 7759.2
4879.1000 0 6607 71.739 1121.6 7800.3
4881.8000 0 6607 72.91 1025.1 7705
4884.5000 0 6607 73.995 802.66 7483.6
4887.2000 0 6607 74.945 795.32 7477.2
4889.9000 0 6607 75.766 1061.9 7744.6
4892.6000 0 6607 76.488 1056.5 7740
4895.3000 0 6607 77.09 997.79 7681.8
4898.0000 0 6607 77.5 979.69 7664.2
4900.7000 0 6607 77.713 1011.9 7696.6
4903.4000 0 6607 77.763 1078.3 7763.1
4906.1000 0 6607 77.717 1118.3 7803
4908.8000 0 6607 77.607 1078.3 7762.9
4911.5000 0 6607 77.439 991.54 7675.9
4914.2000 0 6607 77.212 988.24 7672.4
4916.9000 0 6607 76.926 1031.4 7715.3
4919.6000 0 6607 76.591 1029.1 7712.6
4922.3000 0 6607 76.273 1065.5 7748.8
4925.0000 0 6607 76.107 938.06 7621.1
4927.7000 0 6607 76.201 1078.8 7762
4930.4000 0 6607 76.562 1168.8 7852.4
4933.1000 0 6607 77.116 1118.4 7802.5
4935.8000 0 6607 77.688 1001.7 7686.3
4938.5000 0 6607 78.163 866.45 7551.6
4941.2000 0 6607 78.528 929.73 7615.2
4943.9000 0 6607 78.812 1072.5 7758.2
4946.6000 0 6607 79.135 1104.8 7790.9
4949.3000 0 6607 79.536 1038 7724.5
4952.0000 0 6607 79.961 1068.6 7755.5
4954.7000 0 6607 80.293 1015.4 7702.6
4957.4000 0 6607 80.472 952.97 7640.4
4960.1000 0 6607 80.511 894.62 7582.1
4962.8000 0 6607 80.541 1039.7 7727.3
4965.5000 0 6607 80.605 1013.1 7700.7
4968.2000 0 6607 80.642 915.34 7602.9
4970.9000 0 6607 80.612 771.45 7459
4973.6000 0 6607 80.426 812.23 7499.6
4976.3000 0 6607 80.177 854.54 7541.7
4979.0000 0 6607 79.933 787.13 7474
4981.7000 0 6607 79.718 767.21 7453.9
4984.4000 0 6607 79.53 898.8 7585.3
4987.1000 0 6607 79.261 997.78 7684
4989.8000 0 6607 78.886 1221.5 7907.4
4992.5000 0 6607 78.477 1261.7 7947.2
4995.2000 0 6607 78.126 1183.9 7868.9
4997.9000 0 6607 77.87 1025 7709.9
5000.6000 0 6607 77.685 876.4 7561.1
5003.3000 0 6607 77.441 1137.1 7821.5
5006.0000 0 6607 77.141 1181.3 7865.4
5008.7000 0 6607 76.826 1192.5 7876.3
5011.4000 0 6607 76.546 1200 7883.5
5014.1000 0 6607 76.415 978.97 7662.4
5016.8000 0 6607 76.445 769.94 7453.3
5019.5000 0 6607 76.629 913.68 7597.3
5022.2000 0 6607 76.945 1074.8 7758.7
5024.9000 0 6607 77.331 1156.6 7840.9
5027.6000 0 6607 77.72 1218.8 7903.5
5030.3000 0 6607 78.088 1034 7719
5033.0000 0 6607 78.377 1088.8 7774.2
5035.7000 0 6607 78.63 1197.4 7883
5038.4000 0 6607 78.917 1179.4 7865.3
5041.1000 0 6607 79.253 1210.2 7896.4
5043.8000 0 6607 79.638 1274.9 7961.5
5046.5000 0 6607 79.994 1300.9 7987.9
5049.2000 0 6607 80.288 1187.3 7874.6
5051.9000 0 6607 80.549 1196.2 7883.7
5054.6000 0 6607 80.831 1188 7875.8
5057.3000 0 6607 81.123 1068.3 7756.4
5060.0000 0 6607 81.409 1193.9 7882.3
5062.7000 0 6607 81.603 1240.5 7929.1
5065.4000 0 6607 81.657 1102.2 7790.8
5068.1000 0 6607 81.595 862.84 7551.4
5070.8000 0 6607 81.44 1097.8 7786.2
5073.5000 0 6607 81.278 1145.3 7833.5
5076.2000 0 6607 81.139 1147.6 7835.7
5078.9000 0 6607 81.024 1180.7 7868.6
5081.6000 0 6607 80.941 1189 7876.9
5084.3000 0 6607 80.919 1273.1 7961
5087.0000 0 6607 80.983 1161 7849
5089.7000 0 6607 81.134 1196.7 7884.8
5092.4000 0 6607 81.346 1059.7 7748
5095.1000 0 6607 81.594 1136.3 7824.9
5097.8000 0 6607 81.883 1227.4 7916.3
5100.5000 0 6607 82.218 1337 8026.2
5103.2000 0 6607 82.588 1188.9 7878.4
5105.9000 0 6607 82.899 1173.1 7862.9
5108.6000 0 6607 83.082 1322.7 8012.8
5111.3000 0 6607 83.122 1278.1 7968.2
5114.0000 0 6607 83.017 1247.1 7937
5116.7000 0 6607 82.831 1257.9 7947.7
5119.4000 0 6607 82.588 1275.3 7964.9
5122.1000 0 6607 82.284 1246.7 7935.9
5124.8000 0 6607 81.916 1238.9 7927.8
5127.5000 0 6607 81.498 1151.8 7840.3
5130.2000 0 6607 81.051 1335.2 8023.2
5132.9000 0 6607 80.671 1335.6 8023.2
5135.6000 0 6607 80.437 1185.5 7872.9
5138.3000 0 6607 80.361 1288.6 7976
5141.0000 0 6607 80.425 1345.7 8033.1
5143.7000 0 6607 80.524 1327.8 8015.3
5146.4000 0 6607 80.472 1314.5 8001.9
5149.1000 0 6607 80.193 1194.6 7881.8
5151.8000 0 6607 79.677 1165.7 7852.3
5154.5000 0 6607 78.975 1183.2 7869.1
5157.2000 0 6607 78.254 1157.1 7842.3
5159.9000 0 6607 77.556 1255.7 7940.3
5162.6000 0 6607 76.871 1283.7 7967.6
5165.3000 0 6607 76.149 1257 7940.1
5168.0000 0 6607 75.332 1260.2 7942.5
5170.7000 0 6607 74.448 1369.9 8051.4
5173.4000 0 6607 73.682 1396.5 8077.1
5176.1000 0 6607 73.246 1428.9 8109.1
5178.8000 0 6607 73.222 1295.1 7975.3
5181.5000 0 6607 73.55 1232.5 7913
5184.2000 0 6607 74.029 1392.6 8073.6
5186.9000 0 6607 74.518 1408.7 8090.1
5189.6000 0 6607 74.988 1277.1 7959
5192.3000 0 6607 75.484 1340.1 8022.6
5195.0000 0 6607 76.084 1311.3 7994.3
5197.7000 0 6607 76.829 1284.8 7968.6
5200.4000 0 6607 77.702 1389.3 8074
5203.1000 0 6607 78.55 1363.5 8049
5205.8000 0 6607 79.212 1456.4 8142.6
5208.5000 0 6607 79.618 1484.6 8171.2
5211.2000 0 6607 79.792 1430.5 8117.3
5213.9000 0 6607 79.855 1456.9 8143.7
5216.6000 0 6607 79.929 1405.3 8092.2
5219.3000 0 6607 80.048 1364.2 8051.3
5222.0000 0 6607 80.196 1362.3 8049.5
5224.7000 0 6607 80.34 1393.3 8080.6
5227.4000 0 6607 80.477 1390.8 8078.2
5230.1000 0 6607 80.62 1328 8015.6
5232.8000 0 6607 80.844 1240.8 7928.6
5235.5000 0 6607 81.168 1183.1 7871.3
5238.2000 0 6607 81.556 1255.3 7943.9
5240.9000 0 6607 81.977 1221.7 7910.7
5243.6000 0 6607 82.31 1246.4 7935.7
5246.3000 0 6607 82.379 1413.2 8102.5
5249.0000 0 6607 82.107 1342.4 8031.5
5251.7000 0 6607 81.494 1371.4 8059.8
5254.4000 0 6607 80.63 1323.1 8010.7
5257.1000 0 6607 79.764 1316 8002.8
5259.8000 0 6607 78.97 1270.3 7956.3
5262.5000 0 6607 78.293 1318.2 8003.5
5265.2000 0 6607 77.755 1260.7 7945.4
5267.9000 0 6607 77.334 1363.1 8047.4
5270.6000 0 6607 77.054 1423.1 8107.1
5273.3000 0 6607 77.053 1419.5 8103.5
5276.0000 0 6607 77.371 1323 8007.3
5278.7000 0 6607 77.988 1356.6 8041.6
5281.4000 0 6607 78.809 1437.3 8123.1
5284.1000 0 6607 79.586 1341.9 8028.5
5286.8000 0 6607 80.255 1392.8 8080
5289.5000 0 6607 80.819 1416.4 8104.2
5292.2000 0 6607 81.296 1386.8 8075.1
5294.9000 0 6607 81.71 1287.8 7976.5
5297.6000 0 6607 82.053 1307.2 7996.2
5300.3000 0 6607 82.328 1305.7 7995
5303.0000 0 6607 82.549 1358.9 8048.4
5305.7000 0 6607 82.634 1406.3 8095.9
5308.4000 0 6607 82.497 1328.4 8017.9
5311.1000 0 6607 82.127 1321.8 8010.9
5313.8000 0 6607 81.566 1331.7 8020.3
5316.5000 0 6607 81.016 1346.4 8034.4
5319.2000 0 6607 80.566 1322.5 8010.1
5321.9000 0 6607 80.226 1347.8 8035
5324.6000 0 6607 79.958 1349.1 8036
5327.3000 0 6607 79.647 1440.7 8127.3
5330.0000 0 6607 79.28 1432.1 8118.3
5332.7000 0 6607 78.97 1382.2 8068.2
5335.4000 0 6607 78.882 1409.2 8095
5338.1000 0 6607 79.116 1402.3 8088.4
5340.8000 0 6607 79.634 1390.5 8077.1
5343.5000 0 6607 80.205 1425.2 8112.4
5346.2000 0 6607 80.605 1407.5 8095
5348.9000 0 6607 80.756 1397 8084.7
5351.6000 0 6607 80.703 1378.9 8066.5
5354.3000 0 6607 80.586 1411.7 8099.3
5357.0000 0 6607 80.503 1360.5 8048
5359.7000 0 6607 80.465 1344.3 8031.7
5362.4000 0 6607 80.398 1306.3 7993.6
5365.1000 0 6607 80.22 1349.6 8036.8
5367.8000 0 6607 79.928 1363.6 8050.5
5370.5000 0 6607 79.554 1272.5 7959.1
5373.2000 0 6607 79.225 1245.7 7931.9
5375.9000 0 6607 78.967 1332.7 8018.6
5378.6000 0 6607 78.753 1356.1 8041.8
5381.3000 0 6607 78.554 1285 7970.5
5384.0000 0 6607 78.302 1338.7 8024
5386.7000 0 6607 77.98 1445.7 8130.6
5389.4000 0 6607 77.589 1369.4 8053.9
5392.1000 0 6607 77.125 1316.2 8000.3
5394.8000 0 6607 76.626 1187.8 7871.4
5397.5000 0 6607 76.182 1205.5 7888.7
5400.2000 0 6607 75.82 1328.7 8011.5
5402.9000 0 6607 75.583 1319.9 8002.5
5405.6000 0 6607 75.445 1368.2 8050.6
5408.3000 0 6607 75.353 1319.6 8001.9
5411.0000 0 6607 75.299 1264.7 7947
5413.7000 0 6607 75.289 1310.5 7992.7
5416.4000 0 6607 75.369 1340.1 8022.5
5419.1000 0 6607 75.552 1319.9 8002.4
5421.8000 0 6607 75.794 1306.6 7989.4
5424.5000 0 6607 75.994 1313.1 7996
5427.2000 0 6607 76.113 1361.8 8044.9
5429.9000 0 6607 76.154 1345.4 8028.5
5432.6000 0 6607 76.179 1268.3 7951.5
5435.3000 0 6607 76.248 1251.3 7934.5
5438.0000 0 6607 76.377 1256 7939.4
5440.7000 0 6607 76.555 1276 7959.5
5443.4000 0 6607 76.735 1234.1 7917.8
5446.1000 0 6607 76.875 1316.7 8000.6
5448.8000 0 6607 76.961 1299.5 7983.4
5451.5000 0 6607 77 1303.6 7987.5
5454.2000 0 6607 77.006 1376.2 8060.2
5456.9000 0 6607 76.967 1389.3 8073.2
5459.6000 0 6607 76.876 1369.2 8053.1
5462.3000 0 6607 76.732 1394.3 8078
5465.0000 0 6607 76.549 1276.8 7960.3
5467.7000 0 6607 76.364 1245.1 7928.4
5470.4000 0 6607 76.186 1291.1 7974.2
5473.1000 0 6607 76.037 1328.8 8011.8
5475.8000 0 6607 75.937 1301.7 7984.6
5478.5000 0 6607 75.891 1346.9 8029.7
5481.2000 0 6607 75.906 1327.4 8010.2
5483.9000 0 6607 75.99 1355.9 8038.8
5486.6000 0 6607 76.112 1365.8 8048.9
5489.3000 0 6607 76.255 1378 8061.2
5492.0000 0 6607 76.398 1372.4 8055.8
5494.7000 0 6607 76.51 1329.1 8012.6
5497.4000 0 6607 76.603 1310.3 7993.8
5500.1000 0 6607 76.678 1326 8009.6
5502.8000 0 6607 76.728 1345.9 8029.6
5505.5000 0 6607 76.735 1264.9 7948.6
5508.2000 0 6607 76.689 1234.3 7917.9
5510.9000 0 6607 76.596 1260.2 7943.8
5513.6000 0 6607 76.499 1340.8 8024.2
5516.3000 0 6607 76.441 1313.1 7996.5
5519.0000 0 6607 76.438 1364 8047.4
5521.7000 0 6607 76.482 1379.5 8063
5524.4000 0 6607 76.555 1365.8 8049.4
5527.1000 0 6607 76.647 1344.6 8028.2
5529.8000 0 6607 76.758 1309.7 7993.4
5532.5000 0 6607 76.898 1302.8 7986.6
5535.2000 0 6607 77.07 1297.5 7981.6
5537.9000 0 6607 77.268 1314.7 7998.9
5540.6000 0 6607 77.481 1371.8 8056.3
5543.3000 0 6607 77.675 1426.3 8110.9
5546.0000 0 6607 77.794 1367.7 8052.5
5548.7000 0 6607 77.812 1321.5 8006.2
5551.4000 0 6607 77.729 1390.9 8075.6
5554.1000 0 6607 77.564 1358 8042.5
5556.8000 0 6607 77.37 1324.6 8008.9
5559.5000 0 6607 77.164 1336.8 8020.9
5562.2000 0 6607 76.953 1358.8 8042.7
5564.9000 0 6607 76.726 1368.7 8052.4
5567.6000 0 6607 76.45 1394.5 8077.9
5570.3000 0 6607 76.125 1413.3 8096.4
5573.0000 0 6607 75.794 1401.5 8084.2
5575.7000 0 6607 75.512 1306.6 7989.1
5578.4000 0 6607 75.307 1344.9 8027.2
5581.1000 0 6607 75.168 1355.2 8037.4
5583.8000 0 6607 75.048 1332.6 8014.6
5586.5000 0 6607 74.945 1315.9 7997.8
5589.2000 0 6607 74.867 1360.2 8042
5591.9000 0 6607 74.833 1353.5 8035.3
5594.6000 0 6607 74.866 1303.4 7985.2
5597.3000 0 6607 74.944 1308 7989.9
5600.0000 0 6607 75.056 1325.3 8007.3
5602.7000 0 6607 75.174 1351.6 8033.7
5605.4000 0 6607 75.288 1296.8 7979.1
5608.1000 0 6607 75.408 1330.5 8012.8
5610.8000 0 6607 75.535 1280.6 7963.1
5613.5000 0 6607 75.652 1191.6 7874.2
5616.2000 0 6607 75.749 1174.1 7856.9
5618.9000 0 6607 75.824 907.15 7589.9
5621.6000 0 6607 75.891 1011.6 7694.4
5624.3000 0 6607 75.972 1186.4 7869.3
5627.0000 0 6607 76.064 1251.5 7934.5
5629.7000 0 6607 76.161 1220.6 7903.7
5632.4000 0 6607 76.248 1157.6 7840.8
5635.1000 0 6607 76.291 1258.1 7941.3
5637.8000 0 6607 76.261 1280 7963.3
5640.5000 0 6607 76.157 1341.6 8024.7
5643.2000 0 6607 75.987 1300.8 7983.7
5645.9000 0 6607 75.792 1291.1 7973.9
5648.6000 0 6607 75.6 1238.8 7921.3
5651.3000 0 6607 75.419 1253.8 7936.2
5654.0000 0 6607 75.266 1180.3 7862.5
5656.7000 0 6607 75.169 1333.7 8015.9
5659.4000 0 6607 75.137 1432.3 8114.4
5662.1000 0 6607 75.185 1414.7 8096.9
5664.8000 0 6607 75.304 1346.2 8028.5
5667.5000 0 6607 75.427 1333.2 8015.6
5670.2000 0 6607 75.535 1363.7 8046.2
5672.9000 0 6607 75.595 1384 8066.6
5675.6000 0 6607 75.625 1275.8 7958.4
5678.3000 0 6607 75.664 1299.7 7982.3
5681.0000 0 6607 75.709 1370.7 8053.3
5683.7000 0 6607 75.724 1361.1 8043.7
5686.4000 0 6607 75.634 1163.9 7846.5
5689.1000 0 6607 74.495 1169.7 7851.2
5691.8000 0 6607 67.748 1258.6 7933.3
5694.5000 0 6607 60.123 1316 7983.1
5697.2000 0 6607 52.564 1388 8047.5
5699.9000 0 6607 45.999 1403.4 8056.3
